OOIBase32 Version 2.0.5.5 Data File
++++++++++++++++++++++++++++++++++++
Date: 01-14-2019, 17:34:09
User: Valued Ocean Optics Customer
Spectrometer Serial Number: USB2G10658
Spectrometer Channel: Master
Integration Time (msec): 3000
Spectra Averaged: 1
Boxcar Smoothing: 0
Correct for Electrical Dark: Enabled
Time Normalized: Disabled
Dual-beam Reference: Disabled
Reference Channel: Master
Temperature: Not acquired
Spectrometer Type: S2000
ADC Type: USB2000
Number of Pixels in File: 2048
Graph Title: 
>>>>>Begin Spectral Data<<<<<
178.46	0.000
178.84	0.000
179.22	-13.040
179.60	-17.542
179.98	-12.040
180.35	56.458
180.73	13.960
181.11	5.458
181.49	11.960
181.87	-0.542
182.25	18.960
182.63	4.458
183.00	-1.040
183.38	8.458
183.76	-1.040
184.14	-9.542
184.52	8.960
184.90	0.458
185.27	0.960
185.65	-4.542
186.03	13.960
186.41	8.458
186.79	-5.040
187.16	114.458
187.54	-0.040
187.92	34.458
188.30	-3.040
188.68	-4.542
189.05	-2.040
189.43	8.458
189.81	17.960
190.19	-6.542
190.57	2.960
190.94	-1.542
191.32	16.960
191.70	-7.542
192.08	3.960
192.45	-10.542
192.83	0.960
193.21	38.458
193.59	4.960
193.96	9.458
194.34	-1.040
194.72	10.458
195.10	-4.040
195.47	124.458
195.85	0.960
196.23	9.458
196.61	-1.040
196.98	-3.542
197.36	0.960
197.74	38.458
198.12	18.960
198.49	-1.542
198.87	-0.040
199.25	9.458
199.62	41.960
200.00	5.458
200.38	3.960
200.76	18.458
201.13	-2.040
201.51	10.458
201.89	-0.040
202.26	-5.542
202.64	13.960
203.02	16.458
203.39	20.960
203.77	21.458
204.15	14.960
204.52	7.458
204.90	20.960
205.28	-8.542
205.65	15.960
206.03	110.458
206.41	-2.040
206.78	6.458
207.16	0.960
207.54	-1.542
207.91	12.960
208.29	-6.542
208.67	-2.040
209.04	8.458
209.42	68.960
209.80	-2.542
210.17	1.960
210.55	24.458
210.93	2.960
211.30	5.458
211.68	2.960
212.05	-4.542
212.43	5.960
212.81	10.458
213.18	4.960
213.56	10.458
213.94	3.960
214.31	-1.542
214.69	-2.040
215.06	-5.542
215.44	0.960
215.82	52.458
216.19	13.960
216.57	26.458
216.94	13.960
217.32	0.458
217.69	19.960
218.07	11.458
218.45	13.960
218.82	-3.542
219.20	30.960
219.57	-3.542
219.95	2.960
220.32	-1.542
220.70	11.960
221.08	57.458
221.45	19.960
221.83	8.458
222.20	15.960
222.58	-3.542
222.95	1.960
223.33	22.458
223.70	79.960
224.08	6.458
224.45	21.960
224.83	19.458
225.20	5.960
225.58	0.458
225.96	4.960
226.33	147.458
226.71	4.960
227.08	14.458
227.46	5.960
227.83	-2.542
228.21	49.960
228.58	-4.542
228.96	6.960
229.33	-1.542
229.71	23.960
230.08	7.458
230.45	14.960
230.83	-1.542
231.20	7.960
231.58	111.458
231.95	14.960
232.33	-3.542
232.70	2.960
233.08	14.458
233.45	3.960
233.83	19.458
234.20	5.960
234.58	-2.542
234.95	8.960
235.33	-4.542
235.70	26.960
236.07	-1.542
236.45	19.960
236.82	-5.542
237.20	4.960
237.57	24.458
237.95	29.960
238.32	29.458
238.69	82.960
239.07	6.458
239.44	1.960
239.82	-6.542
240.19	1.960
240.56	32.458
240.94	4.960
241.31	-0.542
241.69	32.960
242.06	1.458
242.43	0.960
242.81	-7.542
243.18	4.960
243.56	-2.542
243.93	26.960
244.30	74.458
244.68	2.960
245.05	7.458
245.42	4.960
245.80	1.458
246.17	3.960
246.55	12.458
246.92	29.960
247.29	1.458
247.67	13.960
248.04	-1.542
248.41	20.960
248.79	43.458
249.16	6.960
249.53	29.458
249.91	19.960
250.28	-4.542
250.65	14.960
251.03	-0.542
251.40	2.960
251.77	-2.542
252.15	-2.040
252.52	9.458
252.89	19.960
253.26	40.458
253.64	2.960
254.01	12.458
254.38	23.960
254.76	28.458
255.13	-2.040
255.50	9.458
255.87	5.960
256.25	16.458
256.62	49.960
256.99	10.458
257.37	95.960
257.74	9.458
258.11	11.960
258.48	-2.542
258.86	25.960
259.23	16.458
259.60	6.960
259.97	22.458
260.35	15.960
260.72	10.458
261.09	-0.040
261.46	7.458
261.84	13.960
262.21	1.458
262.58	8.960
262.95	-2.542
263.33	2.960
263.70	-1.542
264.07	1.960
264.44	-2.542
264.81	18.960
265.19	-4.542
265.56	15.960
265.93	16.458
266.30	3.960
266.67	-2.542
267.05	-1.040
267.42	-2.542
267.79	3.960
268.16	24.458
268.53	21.960
268.91	7.458
269.28	3.960
269.65	26.458
270.02	2.960
270.39	8.458
270.76	19.960
271.14	-4.542
271.51	17.960
271.88	24.458
272.25	4.960
272.62	4.458
272.99	-0.040
273.36	18.458
273.74	35.960
274.11	19.458
274.48	-1.040
274.85	11.458
275.22	2.960
275.59	14.458
275.96	3.960
276.33	16.458
276.71	3.960
277.08	-2.542
277.45	13.960
277.82	51.458
278.19	11.960
278.56	-0.542
278.93	3.960
279.30	12.458
279.67	34.960
280.04	-4.542
280.42	25.960
280.79	2.458
281.16	15.960
281.53	-3.542
281.90	53.960
282.27	-1.542
282.64	10.960
283.01	-2.542
283.38	13.960
283.75	-1.542
284.12	3.960
284.49	108.458
284.86	18.960
285.23	-5.542
285.60	17.960
285.97	12.458
286.34	4.960
286.71	12.458
287.09	31.960
287.46	-4.542
287.83	35.960
288.20	-1.542
288.57	36.960
288.94	7.458
289.31	-2.040
289.68	-6.542
290.05	9.960
290.42	-5.542
290.79	1.960
291.16	11.458
291.53	-0.040
291.90	12.458
292.27	0.960
292.64	-1.542
293.01	17.960
293.38	10.458
293.74	22.960
294.11	41.458
294.48	3.960
294.85	7.458
295.22	15.960
295.59	1.458
295.96	1.960
296.33	-4.542
296.70	3.960
297.07	-3.542
297.44	17.960
297.81	8.458
298.18	-0.040
298.55	-0.542
298.92	7.960
299.29	-4.542
299.66	11.960
300.03	38.458
300.39	8.960
300.76	12.458
301.13	13.960
301.50	-4.542
301.87	19.960
302.24	-2.542
302.61	28.960
302.98	1.458
303.35	15.960
303.72	-4.542
304.08	15.960
304.45	14.458
304.82	3.960
305.19	29.458
305.56	125.960
305.93	-2.542
306.30	0.960
306.67	10.458
307.03	27.960
307.40	-1.542
307.77	2.960
308.14	-4.542
308.51	19.960
308.88	8.458
309.24	9.960
309.61	-0.542
309.98	-4.040
310.35	12.458
310.72	39.960
311.09	-1.542
311.45	0.960
311.82	26.458
312.19	3.960
312.56	-4.542
312.93	8.960
313.29	-5.542
313.66	13.960
314.03	-8.542
314.40	1.960
314.77	-3.542
315.13	84.960
315.50	15.458
315.87	-0.040
316.24	-2.542
316.61	26.960
316.97	-2.542
317.34	14.960
317.71	-6.542
318.08	14.960
318.44	-5.542
318.81	15.960
319.18	-5.542
319.55	-0.040
319.91	3.458
320.28	4.960
320.65	24.458
321.02	31.960
321.38	0.458
321.75	17.960
322.12	-3.542
322.49	-1.040
322.85	-3.542
323.22	1.960
323.59	26.458
323.95	4.960
324.32	65.458
324.69	8.960
325.05	11.458
325.42	15.960
325.79	6.458
326.16	41.960
326.52	-6.542
326.89	0.960
327.26	-3.542
327.62	19.960
327.99	-4.542
328.36	11.960
328.72	2.458
329.09	0.960
329.46	3.458
329.82	-1.040
330.19	133.458
330.56	15.960
330.92	10.458
331.29	2.960
331.66	-1.542
332.02	1.960
332.39	-5.542
332.75	1.960
333.12	23.458
333.49	-1.040
333.85	-2.542
334.22	2.960
334.59	-2.542
334.95	2.960
335.32	28.458
335.68	16.960
336.05	38.458
336.42	66.960
336.78	70.458
337.15	68.960
337.51	28.458
337.88	85.960
338.25	234.458
338.61	5.960
338.98	2.458
339.34	19.960
339.71	8.458
340.07	147.960
340.44	-3.542
340.81	8.960
341.17	38.458
341.54	2.960
341.90	-7.542
342.27	-0.040
342.63	-4.542
343.00	19.960
343.36	3.458
343.73	93.960
344.09	1.458
344.46	33.960
344.82	23.458
345.19	25.960
345.55	-3.542
345.92	104.960
346.28	-6.542
346.65	1.960
347.01	4.458
347.38	2.960
347.74	161.458
348.11	3.960
348.47	8.458
348.84	2.960
349.20	-2.542
349.57	17.960
349.93	20.458
350.30	6.960
350.66	1.458
351.03	52.960
351.39	93.458
351.76	16.960
352.12	10.458
352.49	53.960
352.85	-2.542
353.22	1.960
353.58	38.458
353.94	12.960
354.31	18.458
354.67	7.960
355.04	-7.542
355.40	15.960
355.77	28.458
356.13	12.960
356.49	10.458
356.86	6.960
357.22	5.458
357.59	2.960
357.95	30.458
358.31	16.960
358.68	8.458
359.04	0.960
359.41	10.458
359.77	-0.040
360.13	-5.542
360.50	3.960
360.86	10.458
361.22	1.960
361.59	1.458
361.95	1.960
362.32	5.458
362.68	27.960
363.04	-2.542
363.41	4.960
363.77	11.458
364.13	20.960
364.50	12.458
364.86	14.960
365.22	-3.542
365.59	10.960
365.95	-7.542
366.31	13.960
366.68	94.458
367.04	77.960
367.40	6.458
367.77	17.960
368.13	-2.542
368.49	-1.040
368.85	-5.542
369.22	11.960
369.58	40.458
369.94	25.960
370.31	-2.542
370.67	69.960
371.03	13.458
371.39	15.960
371.76	-7.542
372.12	8.960
372.48	10.458
372.85	13.960
373.21	27.458
373.57	-2.040
373.93	10.458
374.30	-1.040
374.66	-8.542
375.02	16.960
375.38	-3.542
375.74	29.960
376.11	7.458
376.47	0.960
376.83	-0.542
377.19	15.960
377.56	12.458
377.92	69.960
378.28	-3.542
378.64	18.960
379.00	9.458
379.37	0.960
379.73	-2.542
380.09	17.960
380.45	-2.542
380.81	31.960
381.18	10.458
381.54	15.960
381.90	-0.542
382.26	0.960
382.62	-3.542
382.98	1.960
383.35	2.458
383.71	10.960
384.07	0.458
384.43	-2.040
384.79	-3.542
385.15	-1.040
385.51	6.458
385.88	121.960
386.24	0.458
386.60	16.960
386.96	0.458
387.32	1.960
387.68	-1.542
388.04	14.960
388.40	-0.542
388.77	16.960
389.13	21.458
389.49	17.960
389.85	9.458
390.21	1.960
390.57	-3.542
390.93	-0.040
391.29	76.458
391.65	9.960
392.01	-3.542
392.37	33.960
392.74	77.458
393.10	-0.040
393.46	9.458
393.82	-0.040
394.18	0.458
394.54	14.960
394.90	-8.542
395.26	15.960
395.62	16.458
395.98	27.960
396.34	19.458
396.70	11.960
397.06	-4.542
397.42	16.960
397.78	-2.542
398.14	0.960
398.50	-4.542
398.86	14.960
399.22	-0.542
399.58	3.960
399.94	19.458
400.30	93.960
400.66	-8.542
401.02	10.960
401.38	9.458
401.74	27.960
402.10	7.458
402.46	4.960
402.82	-7.542
403.18	15.960
403.54	24.458
403.90	30.960
404.26	2.458
404.62	15.960
404.98	8.458
405.34	-1.040
405.70	-3.542
406.06	14.960
406.42	5.458
406.78	14.960
407.13	-3.542
407.49	-1.040
407.85	-2.542
408.21	0.960
408.57	7.458
408.93	2.960
409.29	-4.542
409.65	5.960
410.01	-2.542
410.37	2.960
410.73	42.458
411.08	12.960
411.44	22.458
411.80	0.960
412.16	-3.542
412.52	-4.040
412.88	-6.542
413.24	5.960
413.60	8.458
413.95	17.960
414.31	-12.542
414.67	79.960
415.03	-6.542
415.39	2.960
415.75	-2.542
416.10	-0.040
416.46	-5.542
416.82	27.960
417.18	-5.542
417.54	18.960
417.90	-2.542
418.25	13.960
418.61	86.458
418.97	13.960
419.33	10.458
419.69	0.960
420.04	1.458
420.40	13.960
420.76	93.458
421.12	25.960
421.48	-5.542
421.83	0.960
422.19	1.458
422.55	27.960
422.91	-5.542
423.26	16.960
423.62	11.458
423.98	14.960
424.34	10.458
424.69	0.960
425.05	-2.542
425.41	1.960
425.77	-9.542
426.12	11.960
426.48	-2.542
426.84	2.960
427.20	-6.542
427.55	-1.040
427.91	-4.542
428.27	2.960
428.62	-3.542
428.98	5.960
429.34	-3.542
429.70	107.960
430.05	6.458
430.41	13.960
430.77	24.458
431.12	25.960
431.48	21.458
431.84	46.960
432.19	-6.542
432.55	14.960
432.91	0.458
433.26	15.960
433.62	-2.542
433.98	1.960
434.33	13.458
434.69	47.960
435.05	-4.542
435.40	31.960
435.76	5.458
436.12	-2.040
436.47	-4.542
436.83	0.960
437.18	10.458
437.54	11.960
437.90	24.458
438.25	1.960
438.61	2.458
438.96	-1.040
439.32	-0.542
439.68	-2.040
440.03	-7.542
440.39	19.960
440.74	14.458
441.10	2.960
441.46	8.458
441.81	10.960
442.17	70.458
442.52	3.960
442.88	7.458
443.23	7.960
443.59	5.458
443.95	0.960
444.30	22.458
444.66	-0.040
445.01	-1.542
445.37	0.960
445.72	8.458
446.08	15.960
446.43	-3.542
446.79	-1.040
447.14	-5.542
447.50	6.960
447.85	-1.542
448.21	15.960
448.56	-4.542
448.92	25.960
449.27	18.458
449.63	1.960
449.98	7.458
450.34	54.960
450.69	-0.542
451.05	27.960
451.40	36.458
451.76	14.960
452.11	57.458
452.47	55.960
452.82	-3.542
453.18	8.960
453.53	-4.542
453.88	20.960
454.24	-7.542
454.59	9.960
454.95	15.458
455.30	42.960
455.66	-5.542
456.01	-3.040
456.36	6.458
456.72	-1.040
457.07	13.458
457.43	6.960
457.78	17.458
458.13	-2.040
458.49	19.458
458.84	12.960
459.20	35.458
459.55	2.960
459.90	46.458
460.26	22.960
460.61	9.458
460.97	0.960
461.32	23.458
461.67	1.960
462.03	-6.542
462.38	-0.040
462.73	-1.542
463.09	-0.040
463.44	7.458
463.79	20.960
464.15	70.458
464.50	-1.040
464.85	13.458
465.21	13.960
465.56	-4.542
465.91	175.960
466.27	81.458
466.62	29.960
466.97	14.458
467.33	2.960
467.68	3.458
468.03	109.960
468.38	-5.542
468.74	-2.040
469.09	-3.542
469.44	-1.040
469.80	23.458
470.15	1.960
470.50	4.458
470.85	11.960
471.21	-7.542
471.56	13.960
471.91	-7.542
472.26	15.960
472.62	-3.542
472.97	2.960
473.32	30.458
473.67	-1.040
474.03	-4.542
474.38	0.960
474.73	-0.542
475.08	17.960
475.43	-2.542
475.79	13.960
476.14	6.458
476.49	18.960
476.84	-4.542
477.19	5.960
477.55	25.458
477.90	24.960
478.25	0.458
478.60	0.960
478.95	8.458
479.30	-0.040
479.66	25.458
480.01	13.960
480.36	-3.542
480.71	0.960
481.06	-7.542
481.41	1.960
481.77	1.458
482.12	8.960
482.47	4.458
482.82	16.960
483.17	26.458
483.52	2.960
483.87	13.458
484.22	15.960
484.58	9.458
484.93	11.960
485.28	157.458
485.63	-2.040
485.98	-5.542
486.33	0.960
486.68	33.458
487.03	1.960
487.38	17.458
487.73	9.960
488.08	6.458
488.44	14.960
488.79	43.458
489.14	2.960
489.49	-7.542
489.84	0.960
490.19	-4.542
490.54	3.960
490.89	-5.542
491.24	10.960
491.59	8.458
491.94	14.960
492.29	4.458
492.64	7.960
492.99	0.458
493.34	15.960
493.69	20.458
494.04	81.960
494.39	75.458
494.74	9.960
495.09	-7.542
495.44	26.960
495.79	21.458
496.14	0.960
496.49	-0.542
496.84	9.960
497.19	0.458
497.54	7.960
497.89	-7.542
498.24	3.960
498.59	-6.542
498.94	8.960
499.29	14.458
499.64	-2.040
499.99	-2.542
500.34	-2.040
500.68	22.458
501.03	14.960
501.38	7.458
501.73	5.960
502.08	-1.542
502.43	-6.040
502.78	-8.542
503.13	-1.040
503.48	-3.542
503.83	-3.040
504.18	-8.542
504.52	17.960
504.87	-3.542
505.22	10.960
505.57	20.458
505.92	67.960
506.27	-4.542
506.62	140.960
506.97	-4.542
507.31	-2.040
507.66	-1.542
508.01	-0.040
508.36	155.458
508.71	-1.040
509.06	-5.542
509.40	24.960
509.75	-4.542
510.10	-0.040
510.45	25.458
510.80	1.960
511.15	-2.542
511.49	6.960
511.84	11.458
512.19	14.960
512.54	-5.542
512.89	14.960
513.23	8.458
513.58	7.960
513.93	-4.542
514.28	1.960
514.62	-7.542
514.97	5.960
515.32	6.458
515.67	1.960
516.01	7.458
516.36	5.960
516.71	86.458
517.06	-3.040
517.40	112.458
517.75	2.960
518.10	-6.542
518.45	14.960
518.79	-4.542
519.14	-0.040
519.49	-3.542
519.83	9.960
520.18	111.458
520.53	3.960
520.88	-1.542
521.22	1.960
521.57	11.458
521.92	-4.040
522.26	-8.542
522.61	45.960
522.96	9.458
523.30	3.960
523.65	-0.542
524.00	17.960
524.34	20.458
524.69	15.960
525.04	9.458
525.38	-1.040
525.73	27.458
526.08	46.960
526.42	-3.542
526.77	-1.040
527.11	-5.542
527.46	-3.040
527.81	-1.542
528.15	1.960
528.50	-3.542
528.85	13.960
529.19	-9.542
529.54	-0.040
529.88	-4.542
530.23	1.960
530.57	7.458
530.92	9.960
531.27	36.458
531.61	27.960
531.96	-1.542
532.30	29.960
532.65	19.458
532.99	14.960
533.34	-4.542
533.69	13.960
534.03	13.458
534.38	59.960
534.72	29.458
535.07	1.960
535.41	-2.542
535.76	-0.040
536.10	7.458
536.45	3.960
536.79	-3.542
537.14	21.960
537.48	-6.542
537.83	84.960
538.17	21.458
538.52	4.960
538.86	22.458
539.21	15.960
539.55	14.458
539.90	31.960
540.24	-0.542
540.59	15.960
540.93	2.458
541.28	30.960
541.62	1.458
541.96	7.960
542.31	18.458
542.65	7.960
543.00	-3.542
543.34	56.960
543.69	22.458
544.03	10.960
544.37	22.458
544.72	25.960
545.06	4.458
545.41	18.960
545.75	7.458
546.10	14.960
546.44	18.458
546.78	11.960
547.13	5.458
547.47	11.960
547.81	148.458
548.16	15.960
548.50	22.458
548.85	30.960
549.19	16.458
549.53	17.960
549.88	23.458
550.22	30.960
550.56	44.458
550.91	104.960
551.25	9.458
551.59	25.960
551.94	25.458
552.28	22.960
552.62	31.458
552.97	20.960
553.31	31.458
553.65	24.960
554.00	26.458
554.34	41.960
554.68	28.458
555.02	55.960
555.37	49.458
555.71	29.960
556.05	28.458
556.40	116.960
556.74	30.458
557.08	39.960
557.42	54.458
557.77	51.960
558.11	31.458
558.45	38.960
558.79	35.458
559.14	63.960
559.48	61.458
559.82	43.960
560.16	51.458
560.50	59.960
560.85	47.458
561.19	45.960
561.53	52.458
561.87	61.960
562.22	41.458
562.56	72.960
562.90	45.458
563.24	48.960
563.58	43.458
563.92	75.960
564.27	44.458
564.61	50.960
564.95	44.458
565.29	47.960
565.63	43.458
565.97	52.960
566.32	55.458
566.66	66.960
567.00	53.458
567.34	47.960
567.68	47.458
568.02	49.960
568.36	54.458
568.71	76.960
569.05	59.458
569.39	63.960
569.73	50.458
570.07	68.960
570.41	42.458
570.75	99.960
571.09	84.458
571.43	51.960
571.77	43.458
572.12	48.960
572.46	71.458
572.80	57.960
573.14	43.458
573.48	68.960
573.82	44.458
574.16	65.960
574.50	54.458
574.84	38.960
575.18	40.458
575.52	60.960
575.86	54.458
576.20	59.960
576.54	37.458
576.88	48.960
577.22	53.458
577.56	41.960
577.90	34.458
578.24	36.960
578.58	55.458
578.92	54.960
579.26	136.458
579.60	41.960
579.94	47.458
580.28	93.960
580.62	45.458
580.96	34.960
581.30	44.458
581.64	34.960
581.98	42.458
582.32	35.960
582.66	31.458
583.00	50.960
583.34	47.458
583.68	39.960
584.02	27.458
584.35	46.960
584.69	30.458
585.03	37.960
585.37	29.458
585.71	32.960
586.05	29.458
586.39	55.960
586.73	46.458
587.07	130.960
587.41	41.458
587.74	58.960
588.08	32.458
588.42	41.960
588.76	32.458
589.10	52.960
589.44	23.458
589.78	33.960
590.12	39.458
590.45	34.960
590.79	26.458
591.13	44.960
591.47	81.458
591.81	37.960
592.15	122.458
592.48	60.960
592.82	26.458
593.16	30.960
593.50	47.458
593.84	38.960
594.17	47.458
594.51	25.960
594.85	35.458
595.19	30.960
595.53	37.458
595.86	50.960
596.20	33.458
596.54	29.960
596.88	17.458
597.21	38.960
597.55	22.458
597.89	29.960
598.23	18.458
598.56	28.960
598.90	33.458
599.24	43.960
599.58	34.458
599.91	40.960
600.25	54.458
600.59	23.960
600.92	27.458
601.26	19.960
601.60	20.458
601.94	52.960
602.27	74.458
602.61	25.960
602.95	15.458
603.28	62.960
603.62	39.458
603.96	22.960
604.29	26.458
604.63	36.960
604.97	44.458
605.30	33.960
605.64	9.458
605.98	32.960
606.31	26.458
606.65	30.960
606.98	58.458
607.32	14.960
607.66	10.458
607.99	19.960
608.33	11.458
608.67	28.960
609.00	56.458
609.34	32.960
609.67	124.458
610.01	28.960
610.34	12.458
610.68	23.960
611.02	31.458
611.35	10.960
611.69	38.458
612.02	15.960
612.36	12.458
612.69	14.960
613.03	8.458
613.37	12.960
613.70	8.458
614.04	28.960
614.37	23.458
614.71	32.960
615.04	4.458
615.38	10.960
615.71	15.458
616.05	14.960
616.38	9.458
616.72	12.960
617.05	19.458
617.39	13.960
617.72	8.458
618.06	47.960
618.39	16.458
618.73	24.960
619.06	5.458
619.40	9.960
619.73	22.458
620.07	14.960
620.40	7.458
620.73	10.960
621.07	0.458
621.40	8.960
621.74	4.458
622.07	31.960
622.41	32.458
622.74	10.960
623.07	31.458
623.41	24.960
623.74	15.458
624.08	26.960
624.41	1.458
624.75	24.960
625.08	20.458
625.41	26.960
625.75	2.458
626.08	37.960
626.41	1.458
626.75	7.960
627.08	2.458
627.42	11.960
627.75	39.458
628.08	5.960
628.42	16.458
628.75	7.960
629.08	12.458
629.42	12.960
629.75	0.458
630.08	23.960
630.42	6.458
630.75	21.960
631.08	17.458
631.41	6.960
631.75	3.458
632.08	21.960
632.41	49.458
632.75	27.960
633.08	12.458
633.41	1.960
633.74	2.458
634.08	7.960
634.41	1.458
634.74	12.960
635.08	-1.542
635.41	5.960
635.74	1.458
636.07	2.960
636.40	1.458
636.74	13.960
637.07	-0.542
637.40	9.960
637.73	-0.542
638.07	5.960
638.40	13.458
638.73	4.960
639.06	13.458
639.39	5.960
639.73	29.458
640.06	4.960
640.39	15.458
640.72	32.960
641.05	17.458
641.38	4.960
641.72	8.458
642.05	9.960
642.38	13.458
642.71	1.960
643.04	-1.542
643.37	3.960
643.71	16.458
644.04	28.960
644.37	-1.542
644.70	4.960
645.03	112.458
645.36	4.960
645.69	25.458
646.02	3.960
646.35	36.458
646.69	14.960
647.02	20.458
647.35	24.960
647.68	47.458
648.01	7.960
648.34	27.458
648.67	31.960
649.00	11.458
649.33	5.960
649.66	-4.542
649.99	6.960
650.32	-6.542
650.65	15.960
650.98	-4.542
651.31	16.960
651.64	4.458
651.97	18.960
652.30	26.458
652.63	2.960
652.96	19.458
653.29	2.960
653.62	75.458
653.95	15.960
654.28	15.458
654.61	1.960
654.94	214.458
655.27	28.960
655.60	-0.542
655.93	1.960
656.26	38.458
656.59	-1.040
656.92	-3.542
657.25	58.960
657.58	0.458
657.91	4.960
658.24	9.458
658.57	16.960
658.90	23.458
659.23	27.960
659.56	25.458
659.89	18.960
660.21	-4.542
660.54	4.960
660.87	8.458
661.20	2.960
661.53	-4.542
661.86	0.960
662.19	-1.542
662.52	4.960
662.85	-3.542
663.17	-1.040
663.50	-2.542
663.83	17.960
664.16	3.458
664.49	11.960
664.82	-3.542
665.14	18.960
665.47	9.458
665.80	3.960
666.13	-3.542
666.46	1.960
666.79	-0.542
667.11	6.960
667.44	9.458
667.77	1.960
668.10	28.458
668.43	2.960
668.75	-1.542
669.08	23.960
669.41	-5.542
669.74	-1.040
670.06	-2.542
670.39	27.960
670.72	-1.542
671.05	0.960
671.37	-6.542
671.70	1.960
672.03	-10.542
672.36	5.960
672.68	6.458
673.01	7.960
673.34	0.458
673.67	-5.040
673.99	17.458
674.32	15.960
674.65	-3.542
674.97	1.960
675.30	13.458
675.63	23.960
675.95	0.458
676.28	23.960
676.61	-3.542
676.93	27.960
677.26	9.458
677.59	0.960
677.91	36.458
678.24	14.960
678.57	33.458
678.89	3.960
679.22	6.458
679.55	13.960
679.87	6.458
680.20	23.960
