OOIBase32 Version 2.0.5.5 Data File
++++++++++++++++++++++++++++++++++++
Date: 01-14-2019, 17:36:31
User: Valued Ocean Optics Customer
Spectrometer Serial Number: USB2G10658
Spectrometer Channel: Master
Integration Time (msec): 6000
Spectra Averaged: 1
Boxcar Smoothing: 0
Correct for Electrical Dark: Enabled
Time Normalized: Disabled
Dual-beam Reference: Disabled
Reference Channel: Master
Temperature: Not acquired
Spectrometer Type: S2000
ADC Type: USB2000
Number of Pixels in File: 2048
Graph Title: 
>>>>>Begin Spectral Data<<<<<
178.46	0.000
178.84	0.000
179.22	-11.328
179.60	-13.262
179.98	-11.328
180.35	116.738
180.73	34.672
181.11	30.738
181.49	31.672
181.87	24.738
182.25	41.672
182.63	5.738
183.00	-1.328
183.38	24.738
183.76	5.672
184.14	-1.262
184.52	37.672
184.90	19.738
185.27	0.672
185.65	-1.262
186.03	32.672
186.41	29.738
186.79	3.672
187.16	266.738
187.54	1.672
187.92	77.738
188.30	-0.328
188.68	-3.262
189.05	-0.328
189.43	28.738
189.81	26.672
190.19	-2.262
190.57	12.672
190.94	3.738
191.32	44.672
191.70	-4.262
192.08	16.672
192.45	-5.262
192.83	4.672
193.21	79.738
193.59	4.672
193.96	34.738
194.34	5.672
194.72	23.738
195.10	3.672
195.47	257.738
195.85	0.672
196.23	25.738
196.61	7.672
196.98	1.738
197.36	6.672
197.74	80.738
198.12	29.672
198.49	-0.262
198.87	6.672
199.25	30.738
199.62	83.672
200.00	27.738
200.38	1.672
200.76	42.738
201.13	5.672
201.51	28.738
201.89	4.672
202.26	-6.262
202.64	27.672
203.02	29.738
203.39	35.672
203.77	58.738
204.15	29.672
204.52	23.738
204.90	40.672
205.28	-2.262
205.65	25.672
206.03	241.738
206.41	1.672
206.78	22.738
207.16	13.672
207.54	0.738
207.91	22.672
208.29	-3.262
208.67	0.672
209.04	21.738
209.42	152.672
209.80	-2.262
210.17	12.672
210.55	54.738
210.93	2.672
211.30	23.738
211.68	-0.328
212.05	-0.262
212.43	6.672
212.81	22.738
213.18	5.672
213.56	22.738
213.94	7.672
214.31	0.738
214.69	0.672
215.06	-0.262
215.44	6.672
215.82	101.738
216.19	31.672
216.57	52.738
216.94	30.672
217.32	3.738
217.69	31.672
218.07	37.738
218.45	37.672
218.82	-0.262
219.20	61.672
219.57	1.738
219.95	7.672
220.32	0.738
220.70	21.672
221.08	120.738
221.45	34.672
221.83	24.738
222.20	32.672
222.58	-2.262
222.95	9.672
223.33	53.738
223.70	154.672
224.08	24.738
224.45	55.672
224.83	45.738
225.20	4.672
225.58	2.738
225.96	4.672
226.33	295.738
226.71	-0.328
227.08	26.738
227.46	5.672
227.83	-0.262
228.21	95.672
228.58	1.738
228.96	4.672
229.33	9.738
229.71	41.672
230.08	27.738
230.45	32.672
230.83	-2.262
231.20	6.672
231.58	227.738
231.95	27.672
232.33	-3.262
232.70	3.672
233.08	23.738
233.45	4.672
233.83	31.738
234.20	8.672
234.58	-0.262
234.95	9.672
235.33	0.738
235.70	58.672
236.07	-0.262
236.45	37.672
236.82	-7.262
237.20	11.672
237.57	51.738
237.95	68.672
238.32	55.738
238.69	177.672
239.07	21.738
239.44	5.672
239.82	-0.262
240.19	10.672
240.56	61.738
240.94	9.672
241.31	2.738
241.69	58.672
242.06	1.738
242.43	6.672
242.81	-5.262
243.18	9.672
243.56	-3.262
243.93	62.672
244.30	151.738
244.68	5.672
245.05	24.738
245.42	10.672
245.80	9.738
246.17	13.672
246.55	25.738
246.92	61.672
247.29	3.738
247.67	35.672
248.04	0.738
248.41	36.672
248.79	91.738
249.16	15.672
249.53	55.738
249.91	35.672
250.28	1.738
250.65	33.672
251.03	-1.262
251.40	6.672
251.77	0.738
252.15	5.672
252.52	26.738
252.89	35.672
253.26	88.738
253.64	8.672
254.01	36.738
254.38	40.672
254.76	60.738
255.13	5.672
255.50	30.738
255.87	-1.328
256.25	34.738
256.62	97.672
256.99	31.738
257.37	195.672
257.74	33.738
258.11	28.672
258.48	5.738
258.86	55.672
259.23	36.738
259.60	8.672
259.97	36.738
260.35	37.672
260.72	28.738
261.09	3.672
261.46	28.738
261.84	27.672
262.21	4.738
262.58	14.672
262.95	-0.262
263.33	8.672
263.70	0.738
264.07	9.672
264.44	-0.262
264.81	34.672
265.19	-4.262
265.56	35.672
265.93	39.738
266.30	16.672
266.67	6.738
267.05	-1.328
267.42	2.738
267.79	7.672
268.16	53.738
268.53	36.672
268.91	26.738
269.28	6.672
269.65	53.738
270.02	4.672
270.39	23.738
270.76	30.672
271.14	-4.262
271.51	37.672
271.88	54.738
272.25	-0.328
272.62	25.738
272.99	5.672
273.36	42.738
273.74	61.672
274.11	26.738
274.48	4.672
274.85	31.738
275.22	10.672
275.59	21.738
275.96	5.672
276.33	24.738
276.71	-0.328
277.08	-5.262
277.45	28.672
277.82	107.738
278.19	26.672
278.56	-2.262
278.93	16.672
279.30	27.738
279.67	69.672
280.04	0.738
280.42	57.672
280.79	9.738
281.16	38.672
281.53	3.738
281.90	106.672
282.27	-3.262
282.64	39.672
283.01	-3.262
283.38	32.672
283.75	-5.262
284.12	9.672
284.49	232.738
284.86	36.672
285.23	3.738
285.60	36.672
285.97	30.738
286.34	3.672
286.71	18.738
287.09	61.672
287.46	0.738
287.83	74.672
288.20	-0.262
288.57	62.672
288.94	30.738
289.31	5.672
289.68	-0.262
290.05	28.672
290.42	-0.262
290.79	8.672
291.16	28.738
291.53	4.672
291.90	30.738
292.27	3.672
292.64	3.738
293.01	36.672
293.38	30.738
293.74	27.672
294.11	85.738
294.48	4.672
294.85	26.738
295.22	33.672
295.59	-1.262
295.96	2.672
296.33	-0.262
296.70	3.672
297.07	-2.262
297.44	34.672
297.81	25.738
298.18	7.672
298.55	4.738
298.92	15.672
299.29	-1.262
299.66	29.672
300.03	73.738
300.39	22.672
300.76	28.738
301.13	31.672
301.50	0.738
301.87	33.672
302.24	-2.262
302.61	58.672
302.98	3.738
303.35	29.672
303.72	-2.262
304.08	31.672
304.45	29.738
304.82	2.672
305.19	59.738
305.56	243.672
305.93	5.738
306.30	6.672
306.67	29.738
307.03	50.672
307.40	5.738
307.77	1.672
308.14	-0.262
308.51	40.672
308.88	25.738
309.24	33.672
309.61	1.738
309.98	10.672
310.35	35.738
310.72	62.672
311.09	-0.262
311.45	1.672
311.82	50.738
312.19	10.672
312.56	-1.262
312.93	19.672
313.29	-0.262
313.66	32.672
314.03	-3.262
314.40	2.672
314.77	2.738
315.13	187.672
315.50	29.738
315.87	5.672
316.24	-2.262
316.61	62.672
316.97	-6.262
317.34	24.672
317.71	-4.262
318.08	32.672
318.44	1.738
318.81	31.672
319.18	-7.262
319.55	0.672
319.91	9.738
320.28	2.672
320.65	57.738
321.02	62.672
321.38	6.738
321.75	28.672
322.12	-3.262
322.49	7.672
322.85	1.738
323.22	5.672
323.59	63.738
323.95	5.672
324.32	139.738
324.69	30.672
325.05	29.738
325.42	34.672
325.79	22.738
326.16	87.672
326.52	0.738
326.89	7.672
327.26	0.738
327.62	31.672
327.99	3.738
328.36	29.672
328.72	7.738
329.09	3.672
329.46	-2.262
329.82	5.672
330.19	285.738
330.56	35.672
330.92	28.738
331.29	7.672
331.66	4.738
332.02	9.672
332.39	-1.262
332.75	8.672
333.12	49.738
333.49	3.672
333.85	-1.262
334.22	1.672
334.59	4.738
334.95	3.672
335.32	49.738
335.68	6.672
336.05	3.738
336.42	13.672
336.78	11.738
337.15	39.672
337.51	3.738
337.88	142.672
338.25	464.738
338.61	1.672
338.98	3.738
339.34	39.672
339.71	25.738
340.07	288.672
340.44	3.738
340.81	34.672
341.17	81.738
341.54	7.672
341.90	-3.262
342.27	2.672
342.63	-4.262
343.00	32.672
343.36	1.738
343.73	188.672
344.09	-1.262
344.46	66.672
344.82	60.738
345.19	58.672
345.55	-2.262
345.92	211.672
346.28	-5.262
346.65	5.672
347.01	13.738
347.38	3.672
347.74	332.738
348.11	2.672
348.47	25.738
348.84	9.672
349.20	-1.262
349.57	32.672
349.93	54.738
350.30	11.672
350.66	7.738
351.03	108.672
351.39	194.738
351.76	30.672
352.12	24.738
352.49	110.672
352.85	0.738
353.22	7.672
353.58	85.738
353.94	37.672
354.31	51.738
354.67	18.672
355.04	-1.262
355.40	36.672
355.77	57.738
356.13	28.672
356.49	26.738
356.86	14.672
357.22	4.738
357.59	2.672
357.95	63.738
358.31	34.672
358.68	26.738
359.04	9.672
359.41	24.738
359.77	-1.328
360.13	-5.262
360.50	2.672
360.86	21.738
361.22	3.672
361.59	5.738
361.95	2.672
362.32	16.738
362.68	62.672
363.04	-3.262
363.41	5.672
363.77	19.738
364.13	39.672
364.50	26.738
364.86	35.672
365.22	1.738
365.59	26.672
365.95	-6.262
366.31	31.672
366.68	209.738
367.04	149.672
367.40	23.738
367.77	35.672
368.13	-2.262
368.49	6.672
368.85	-2.262
369.22	27.672
369.58	91.738
369.94	58.672
370.31	-1.262
370.67	141.672
371.03	29.738
371.39	31.672
371.76	-4.262
372.12	26.672
372.48	21.738
372.85	29.672
373.21	52.738
373.57	3.672
373.93	25.738
374.30	-0.328
374.66	-4.262
375.02	21.672
375.38	-3.262
375.74	61.672
376.11	22.738
376.47	13.672
376.83	0.738
377.19	25.672
377.56	24.738
377.92	141.672
378.28	-0.262
378.64	30.672
379.00	26.738
379.37	0.672
379.73	7.738
380.09	26.672
380.45	3.738
380.81	55.672
381.18	17.738
381.54	37.672
381.90	1.738
382.26	6.672
382.62	-3.262
382.98	6.672
383.35	2.738
383.71	25.672
384.07	0.738
384.43	8.672
384.79	-2.262
385.15	2.672
385.51	21.738
385.88	248.672
386.24	-5.262
386.60	29.672
386.96	-3.262
387.32	13.672
387.68	2.738
388.04	33.672
388.40	3.738
388.77	28.672
389.13	40.738
389.49	36.672
389.85	23.738
390.21	7.672
390.57	-3.262
390.93	2.672
391.29	157.738
391.65	30.672
392.01	4.738
392.37	63.672
392.74	170.738
393.10	2.672
393.46	22.738
393.82	2.672
394.18	-9.262
394.54	31.672
394.90	-2.262
395.26	33.672
395.62	28.738
395.98	56.672
396.34	47.738
396.70	33.672
397.06	2.738
397.42	25.672
397.78	-5.262
398.14	7.672
398.50	5.738
398.86	26.672
399.22	2.738
399.58	9.672
399.94	55.738
400.30	197.672
400.66	-5.262
401.02	30.672
401.38	34.738
401.74	51.672
402.10	19.738
402.46	11.672
402.82	-0.262
403.18	40.672
403.54	56.738
403.90	58.672
404.26	-0.262
404.62	36.672
404.98	26.738
405.34	13.672
405.70	5.738
406.06	29.672
406.42	28.738
406.78	36.672
407.13	-5.262
407.49	5.672
407.85	-0.262
408.21	3.672
408.57	24.738
408.93	6.672
409.29	-4.262
409.65	11.672
410.01	3.738
410.37	2.672
410.73	86.738
411.08	24.672
411.44	48.738
411.80	7.672
412.16	-1.262
412.52	-0.328
412.88	-4.262
413.24	10.672
413.60	22.738
413.95	29.672
414.31	0.738
414.67	164.672
415.03	-2.262
415.39	1.672
415.75	-2.262
416.10	0.672
416.46	-4.262
416.82	55.672
417.18	-3.262
417.54	34.672
417.90	-4.262
418.25	27.672
418.61	190.738
418.97	29.672
419.33	35.738
419.69	6.672
420.04	3.738
420.40	29.672
420.76	207.738
421.12	61.672
421.48	-4.262
421.83	0.672
422.19	-3.262
422.55	56.672
422.91	-0.262
423.26	33.672
423.62	20.738
423.98	39.672
424.34	16.738
424.69	4.672
425.05	1.738
425.41	-3.328
425.77	-2.262
426.12	35.672
426.48	-1.262
426.84	3.672
427.20	-3.262
427.55	0.672
427.91	-0.262
428.27	-1.328
428.62	-4.262
428.98	7.672
429.34	-1.262
429.70	231.672
430.05	19.738
430.41	27.672
430.77	50.738
431.12	57.672
431.48	46.738
431.84	93.672
432.19	-5.262
432.55	36.672
432.91	-2.262
433.26	33.672
433.62	-2.262
433.98	3.672
434.33	27.738
434.69	101.672
435.05	-5.262
435.40	54.672
435.76	19.738
436.12	1.672
436.47	-3.262
436.83	9.672
437.18	25.738
437.54	25.672
437.90	49.738
438.25	1.672
438.61	-2.262
438.96	-0.328
439.32	0.738
439.68	2.672
440.03	-2.262
440.39	33.672
440.74	33.738
441.10	10.672
441.46	24.738
441.81	24.672
442.17	146.738
442.52	0.672
442.88	25.738
443.23	8.672
443.59	24.738
443.95	5.672
444.30	54.738
444.66	3.672
445.01	9.738
445.37	0.672
445.72	22.738
446.08	32.672
446.43	-3.262
446.79	3.672
447.14	0.738
447.50	16.672
447.85	3.738
448.21	33.672
448.56	9.738
448.92	56.672
449.27	41.738
449.63	7.672
449.98	25.738
450.34	105.672
450.69	-4.262
451.05	60.672
451.40	73.738
451.76	30.672
452.11	110.738
452.47	114.672
452.82	3.738
453.18	27.672
453.53	-2.262
453.88	38.672
454.24	-4.262
454.59	29.672
454.95	31.738
455.30	87.672
455.66	-5.262
456.01	0.672
456.36	21.738
456.72	3.672
457.07	25.738
457.43	3.672
457.78	32.738
458.13	4.672
458.49	44.738
458.84	33.672
459.20	77.738
459.55	10.672
459.90	100.738
460.26	39.672
460.61	27.738
460.97	4.672
461.32	57.738
461.67	2.672
462.03	-9.262
462.38	-0.328
462.73	-1.262
463.09	1.672
463.44	25.738
463.79	35.672
464.15	144.738
464.50	0.672
464.85	18.738
465.21	25.672
465.56	-6.262
465.91	337.672
466.27	166.738
466.62	59.672
466.97	41.738
467.33	-0.328
467.68	24.738
468.03	215.672
468.38	-0.262
468.74	-4.328
469.09	-1.262
469.44	5.672
469.80	51.738
470.15	2.672
470.50	7.738
470.85	25.672
471.21	-3.262
471.56	28.672
471.91	0.738
472.26	35.672
472.62	0.738
472.97	4.672
473.32	72.738
473.67	4.672
474.03	3.738
474.38	0.672
474.73	9.738
475.08	33.672
475.43	12.738
475.79	30.672
476.14	28.738
476.49	31.672
476.84	-5.262
477.19	-0.328
477.55	57.738
477.90	53.672
478.25	-0.262
478.60	4.672
478.95	17.738
479.30	7.672
479.66	44.738
480.01	31.672
480.36	-6.262
480.71	5.672
481.06	-6.262
481.41	3.672
481.77	15.738
482.12	11.672
482.47	14.738
482.82	36.672
483.17	66.738
483.52	-1.328
483.87	34.738
484.22	29.672
484.58	21.738
484.93	23.672
485.28	318.738
485.63	2.672
485.98	1.738
486.33	1.672
486.68	77.738
487.03	3.672
487.38	47.738
487.73	28.672
488.08	30.738
488.44	29.672
488.79	101.738
489.14	-1.328
489.49	-4.262
489.84	5.672
490.19	-4.262
490.54	8.672
490.89	-1.262
491.24	26.672
491.59	18.738
491.94	33.672
492.29	22.738
492.64	26.672
492.99	7.738
493.34	30.672
493.69	55.738
494.04	161.672
494.39	156.738
494.74	25.672
495.09	-5.262
495.44	48.672
495.79	51.738
496.14	1.672
496.49	-1.262
496.84	29.672
497.19	-2.262
497.54	31.672
497.89	-5.262
498.24	1.672
498.59	-0.262
498.94	28.672
499.29	29.738
499.64	-6.328
499.99	-0.262
500.34	4.672
500.68	43.738
501.03	25.672
501.38	16.738
501.73	4.672
502.08	-1.262
502.43	2.672
502.78	-1.262
503.13	1.672
503.48	-4.262
503.83	-2.328
504.18	-6.262
504.52	23.672
504.87	0.738
505.22	24.672
505.57	57.738
505.92	141.672
506.27	-6.262
506.62	285.672
506.97	-4.262
507.31	0.672
507.66	-2.262
508.01	2.672
508.36	315.738
508.71	5.672
509.06	-3.262
509.40	44.672
509.75	-2.262
510.10	-1.328
510.45	56.738
510.80	1.672
511.15	-1.262
511.49	-2.328
511.84	30.738
512.19	30.672
512.54	-0.262
512.89	30.672
513.23	25.738
513.58	33.672
513.93	-4.262
514.28	2.672
514.62	-3.262
514.97	6.672
515.32	26.738
515.67	5.672
516.01	25.738
516.36	-5.328
516.71	184.738
517.06	-0.328
517.40	243.738
517.75	0.672
518.10	-4.262
518.45	27.672
518.79	-6.262
519.14	0.672
519.49	5.738
519.83	32.672
520.18	229.738
520.53	5.672
520.88	-5.262
521.22	2.672
521.57	21.738
521.92	2.672
522.26	-9.262
522.61	87.672
522.96	28.738
523.30	-2.328
523.65	-4.262
524.00	31.672
524.34	41.738
524.69	35.672
525.04	25.738
525.38	0.672
525.73	55.738
526.08	80.672
526.42	-4.262
526.77	0.672
527.11	-4.262
527.46	1.672
527.81	-6.262
528.15	1.672
528.50	-5.262
528.85	26.672
529.19	-3.262
529.54	1.672
529.88	-3.262
530.23	8.672
530.57	14.738
530.92	11.672
531.27	76.738
531.61	57.672
531.96	-2.262
532.30	56.672
532.65	48.738
532.99	28.672
533.34	-5.262
533.69	25.672
534.03	31.738
534.38	113.672
534.72	51.738
535.07	-1.328
535.41	-2.262
535.76	1.672
536.10	21.738
536.45	-0.328
536.79	-2.262
537.14	31.672
537.48	-1.262
537.83	166.672
538.17	45.738
538.52	1.672
538.86	47.738
539.21	31.672
539.55	21.738
539.90	55.672
540.24	-1.262
540.59	30.672
540.93	5.738
541.28	49.672
541.62	-5.262
541.96	10.672
542.31	23.738
542.65	6.672
543.00	-5.262
543.34	91.672
543.69	34.738
544.03	11.672
544.37	54.738
544.72	32.672
545.06	-0.262
545.41	22.672
545.75	-7.262
546.10	3.672
546.44	24.738
546.78	5.672
547.13	-0.262
547.47	7.672
547.81	275.738
548.16	-4.328
548.50	26.738
548.85	30.672
549.19	2.738
549.53	2.672
549.88	18.738
550.22	27.672
550.56	56.738
550.91	183.672
551.25	-8.262
551.59	-0.328
551.94	19.738
552.28	3.672
552.62	25.738
552.97	5.672
553.31	28.738
553.65	6.672
554.00	4.738
554.34	34.672
554.68	1.738
555.02	62.672
555.37	54.738
555.71	6.672
556.05	-0.262
556.40	182.672
556.74	3.738
557.08	9.672
557.42	47.738
557.77	30.672
558.11	1.738
558.45	10.672
558.79	-1.262
559.14	59.672
559.48	52.738
559.82	9.672
560.16	28.738
560.50	26.672
560.85	7.738
561.19	13.672
561.53	17.738
561.87	41.672
562.22	4.738
562.56	62.672
562.90	-4.262
563.24	13.672
563.58	-0.262
563.92	63.672
564.27	-2.262
564.61	7.672
564.95	4.738
565.29	9.672
565.63	3.738
565.97	8.672
566.32	19.738
566.66	39.672
567.00	1.738
567.34	4.672
567.68	5.738
568.02	7.672
568.36	33.738
568.71	59.672
569.05	30.738
569.39	40.672
569.73	-0.262
570.07	38.672
570.41	2.738
570.75	93.672
571.09	85.738
571.43	11.672
571.77	7.738
572.12	17.672
572.46	66.738
572.80	40.672
573.14	11.738
573.48	63.672
573.82	9.738
574.16	44.672
574.50	42.738
574.84	24.672
575.18	16.738
575.52	56.672
575.86	41.738
576.20	59.672
576.54	21.738
576.88	38.672
577.22	46.738
577.56	39.672
577.90	33.738
578.24	35.672
578.58	65.738
578.92	71.672
579.26	247.738
579.60	55.672
579.94	73.738
580.28	153.672
580.62	89.738
580.96	59.672
581.30	93.738
581.64	65.672
581.98	89.738
582.32	72.672
582.66	79.738
583.00	101.672
583.34	103.738
583.68	95.672
584.02	79.738
584.35	111.672
584.69	83.738
585.03	89.672
585.37	95.738
585.71	95.672
586.05	97.738
586.39	156.672
586.73	138.738
587.07	300.672
587.41	132.738
587.74	167.672
588.08	118.738
588.42	125.672
588.76	123.738
589.10	167.672
589.44	119.738
589.78	126.672
590.12	148.738
590.45	142.672
590.79	130.738
591.13	160.672
591.47	227.738
591.81	148.672
592.15	317.738
592.48	195.672
592.82	134.738
593.16	131.672
593.50	179.738
593.84	146.672
594.17	172.738
594.51	140.672
594.85	160.738
595.19	147.672
595.53	173.738
595.86	199.672
596.20	153.738
596.54	129.672
596.88	135.738
597.21	157.672
597.55	133.738
597.89	142.672
598.23	127.738
598.56	129.672
598.90	163.738
599.24	177.672
599.58	155.738
599.91	165.672
600.25	201.738
600.59	134.672
600.92	142.738
601.26	127.672
601.60	121.738
601.94	179.672
602.27	228.738
602.61	125.672
602.95	123.738
603.28	210.672
603.62	177.738
603.96	120.672
604.29	140.738
604.63	143.672
604.97	177.738
605.30	144.672
605.64	108.738
605.98	149.672
606.31	130.738
606.65	140.672
606.98	186.738
607.32	114.672
607.66	101.738
607.99	98.672
608.33	103.738
608.67	131.672
609.00	189.738
609.34	134.672
609.67	305.738
610.01	133.672
610.34	96.738
610.68	117.672
611.02	128.738
611.35	104.672
611.69	143.738
612.02	97.672
612.36	89.738
612.69	101.672
613.03	91.738
613.37	88.672
613.70	85.738
614.04	117.672
614.37	118.738
614.71	114.672
615.04	80.738
615.38	85.672
615.71	88.738
616.05	70.672
616.38	73.738
616.72	74.672
617.05	90.738
617.39	74.672
617.72	64.738
618.06	153.672
618.39	93.738
618.73	97.672
619.06	68.738
619.40	76.672
619.73	94.738
620.07	79.672
620.40	61.738
620.73	64.672
621.07	60.738
621.40	72.672
621.74	60.738
622.07	107.672
622.41	116.738
622.74	64.672
623.07	109.738
623.41	91.672
623.74	89.738
624.08	91.672
624.41	59.738
624.75	91.672
625.08	83.738
625.41	93.672
625.75	55.738
626.08	118.672
626.41	46.738
626.75	52.672
627.08	47.738
627.42	62.672
627.75	121.738
628.08	54.672
628.42	73.738
628.75	51.672
629.08	48.738
629.42	60.672
629.75	39.738
630.08	74.672
630.42	52.738
630.75	73.672
631.08	77.738
631.41	47.672
631.75	40.738
632.08	82.672
632.41	125.738
632.75	77.672
633.08	63.738
633.41	48.672
633.74	42.738
634.08	43.672
634.41	36.738
634.74	55.672
635.08	39.738
635.41	41.672
635.74	35.738
636.07	41.672
636.40	33.738
636.74	60.672
637.07	38.738
637.40	41.672
637.73	29.738
638.07	32.672
638.40	56.738
638.73	32.672
639.06	56.738
639.39	33.672
639.73	85.738
640.06	34.672
640.39	53.738
640.72	86.672
641.05	56.738
641.38	34.672
641.72	51.738
642.05	41.672
642.38	50.738
642.71	26.672
643.04	29.738
643.37	27.672
643.71	52.738
644.04	76.672
644.37	16.738
644.70	25.672
645.03	261.738
645.36	33.672
645.69	78.738
646.02	26.672
646.35	98.738
646.69	55.672
647.02	51.738
647.35	62.672
647.68	119.738
648.01	28.672
648.34	75.738
648.67	74.672
649.00	46.738
649.33	24.672
649.66	22.738
649.99	25.672
650.32	16.738
650.65	47.672
650.98	14.738
651.31	54.672
651.64	44.738
651.97	51.672
652.30	66.738
652.63	22.672
652.96	48.738
653.29	21.672
653.62	176.738
653.95	55.672
654.28	51.738
654.61	21.672
654.94	428.738
655.27	79.672
655.60	12.738
655.93	16.672
656.26	101.738
656.59	16.672
656.92	14.738
657.25	117.672
657.58	16.738
657.91	17.672
658.24	34.738
658.57	49.672
658.90	68.738
659.23	57.672
659.56	67.738
659.89	53.672
660.21	14.738
660.54	10.672
660.87	35.738
661.20	16.672
661.53	4.738
661.86	12.672
662.19	3.738
662.52	20.672
662.85	4.738
663.17	18.672
663.50	10.738
663.83	49.672
664.16	18.738
664.49	36.672
664.82	8.738
665.14	46.672
665.47	33.738
665.80	10.672
666.13	10.738
666.46	12.672
666.79	7.738
667.11	17.672
667.44	33.738
667.77	7.672
668.10	77.738
668.43	26.672
668.75	10.738
669.08	39.672
669.41	7.738
669.74	19.672
670.06	-1.262
670.39	63.672
670.72	4.738
671.05	16.672
671.37	4.738
671.70	9.672
672.03	3.738
672.36	12.672
672.68	35.738
673.01	22.672
673.34	8.738
673.67	4.672
673.99	39.738
674.32	36.672
674.65	6.738
674.97	13.672
675.30	34.738
675.63	62.672
